Time (s)	Throttle (u)	Thrust (N)
0.000	100	0.076611
0.009	100	0.075874
0.022	100	0.069951
0.033	800	0.091518
0.045	800	0.376507
0.057	800	0.898772
0.069	800	1.462203
0.080	800	1.942519
0.091	800	2.304835
0.104	800	2.563900
0.115	800	2.748008
0.127	800	2.873876
0.139	800	2.971181
0.151	800	3.042272
0.162	800	3.081226
0.174	800	3.102077
0.186	800	3.118660
0.198	800	3.137522
0.209	800	3.141232
0.221	800	3.146462
0.233	800	3.151155
0.245	800	3.148294
0.256	800	3.148160
0.269	800	3.149881
0.280	800	3.153390
0.292	800	3.156876
0.303	800	3.156228
0.316	800	3.153367
0.327	800	3.151803
0.339	800	3.143869
0.350	800	3.142774
0.363	800	3.139533
0.374	800	3.142506
0.385	800	3.136628
0.398	800	3.136092
0.409	800	3.139422
0.421	800	3.138550
0.432	800	3.140428
0.445	800	3.145903
0.456	800	3.145322
0.468	800	3.140450
0.480	800	3.143422
0.492	800	3.139400
0.503	800	3.134259
0.515	800	3.125253
0.527	800	3.130035
0.539	800	3.133611
0.550	800	3.132650
0.562	800	3.133477
0.574	800	3.133902
0.586	800	3.127197
0.597	800	3.119174
0.610	800	3.126482
0.621	800	3.123867
0.633	800	3.119822
0.644	800	3.129477
0.657	800	3.125119
0.668	800	3.123510
0.679	800	3.124068
0.691	800	3.122213
0.703	800	3.119867
0.715	800	3.119375
0.726	800	3.121901
0.739	800	3.126080
0.750	800	3.118794
0.762	800	3.113252
0.773	800	3.121230
0.786	800	3.125320
0.797	800	3.124292
0.809	800	3.129253
0.821	800	3.127264
0.833	800	3.113631
0.844	800	3.113945
0.856	800	3.112760
0.868	800	3.115129
0.880	800	3.123465
0.891	800	3.120448
0.903	800	3.114212
0.915	800	3.115554
0.927	800	3.109497
0.938	800	3.107352
0.951	800	3.108402
0.962	800	3.104558
0.973	800	3.104469
0.985	800	3.108782
0.997	800	3.109542
1.009	800	3.105161
1.020	800	3.104357
1.032	800	3.095574
1.044	800	3.100267
1.056	800	3.095932
1.067	800	3.093049
1.080	800	3.094479
1.091	800	3.089875
1.103	800	3.100021
1.114	800	3.105228
1.127	800	3.102278
1.138	800	3.099887
1.150	800	3.094255
1.161	800	3.091886
1.174	800	3.086746
1.185	800	3.086679
1.197	800	3.091909
1.209	800	3.098725
1.221	800	3.103284
1.232	800	3.097496
1.244	800	3.092244
1.256	800	3.094412
1.267	800	3.091171
1.279	800	3.087238
1.291	800	3.092177
1.303	800	3.092646
1.314	800	3.088378
1.326	800	3.089160
1.338	800	3.090098
1.350	800	3.086657
1.361	800	3.085942
1.373	800	3.087528
1.385	800	3.084198
1.397	800	3.085182
1.408	800	3.084958
1.421	800	3.079036
1.432	800	3.084668
1.444	800	3.084176
1.455	800	3.083260
1.468	800	3.083170
1.479	800	3.077986
1.491	800	3.080891
1.502	800	3.076198
1.515	800	3.080824
1.526	800	3.088087
1.538	800	3.088087
1.550	800	3.080667
1.562	800	3.078276
1.573	800	3.073382
1.584	800	3.079773
1.597	800	3.081047
1.608	800	3.078790
1.620	800	3.079930
1.632	800	3.077762
1.644	800	3.075862
1.655	800	3.080354
1.667	800	3.077740
1.679	800	3.080533
1.691	800	3.077650
1.702	800	3.072532
1.714	800	3.071393
1.726	800	3.078544
1.738	800	3.083953
1.749	800	3.079148
1.762	800	3.074700
1.773	800	3.071549
1.785	800	3.071571
1.796	800	3.071147
1.809	800	3.075795
1.820	800	3.080913
1.832	800	3.074656
1.843	800	3.069046
1.856	800	3.060688
1.867	800	3.070811
1.878	800	3.078455
1.891	800	3.073851
1.902	800	3.060554
1.914	800	3.065381
1.925	800	3.066565
1.938	800	3.067549
1.949	800	3.063660
1.961	800	3.065962
1.973	800	3.065046
1.985	800	3.067616
1.996	800	3.060308
2.008	800	3.057090
2.020	800	3.065113
2.032	800	3.064353
2.043	800	3.064956
2.055	800	3.058430
2.067	800	3.062811
2.079	800	3.070767
2.090	800	3.066923
2.103	800	3.065001
2.114	800	3.068398
2.126	800	3.063973
2.137	800	3.071013
2.150	800	3.068577
2.161	800	3.063436
2.172	800	3.058051
2.184	800	3.055927
2.197	800	3.049580
2.208	800	3.053290
2.219	800	3.058162
2.232	800	3.061023
2.243	800	3.059950
2.255	800	3.057023
2.266	800	3.057425
2.279	800	3.057090
2.290	800	3.063503
2.302	800	3.059101
2.313	800	3.057179
2.326	800	3.059861
2.337	800	3.057335
2.349	800	3.052731
2.361	800	3.056866
2.373	800	3.057313
2.384	800	3.052173
2.396	800	3.047882
2.408	800	3.048172
2.420	800	3.045669
2.431	800	3.042831
2.444	800	3.050363
2.455	800	3.060241
2.466	800	3.055860
2.478	800	3.052866
2.491	800	3.053156
2.502	800	3.051078
2.513	800	3.056576
2.525	800	3.052128
2.537	800	3.043613
2.549	800	3.045669
2.560	800	3.047122
2.573	800	3.044686
2.584	800	3.049312
2.596	800	3.054542
2.607	800	3.051324
2.620	800	3.044083
2.631	800	3.046295
2.643	800	3.054542
2.654	800	3.052352
2.667	800	3.046921
2.678	800	3.045289
2.690	800	3.042853
2.702	800	3.044194
2.714	800	3.046340
2.725	800	3.041893
2.737	800	3.043367
2.749	800	3.042228
2.761	800	3.043546
2.772	800	3.042876
2.785	800	3.037110
2.796	800	3.031567
2.807	800	3.035680
2.819	800	3.040641
2.831	800	3.044418
2.843	800	3.039993
2.854	800	3.034741
2.866	800	3.035836
2.878	800	3.034204
2.890	800	3.041714
2.901	800	3.042340
2.914	800	3.041557
2.925	800	3.042496
2.937	800	3.044440
2.948	800	3.049513
2.961	800	3.048820
2.972	800	3.044686
2.984	800	3.032394
2.995	800	3.033422
3.008	800	3.036775
3.019	800	3.035277
3.031	800	3.042004
3.043	800	3.047077
3.055	800	3.043546
3.066	800	3.040127
3.077	800	3.027589
3.090	800	3.033333
3.101	800	3.036283
3.113	800	3.033489
3.125	800	3.033802
3.137	800	3.026986
3.148	800	3.032506
3.160	800	3.033333
3.172	800	3.026695
3.184	800	3.026807
3.195	800	3.027366
3.207	800	3.023499
3.219	800	3.027120
3.231	800	3.030204
3.242	800	3.028528
3.255	800	3.029914
3.266	800	3.026204
3.278	800	3.027969
3.289	800	3.026874
3.302	800	3.030092
3.313	800	3.033199
3.325	800	3.028439
3.336	800	3.030897
3.349	800	3.028573
3.360	800	3.024416
3.371	800	3.022851
3.384	800	3.022025
3.395	800	3.022963
3.407	800	3.022270
3.418	800	3.022918
3.431	800	3.030204
3.442	800	3.028483
3.454	800	3.023790
3.465	800	3.026941
3.478	800	3.026517
3.489	800	3.020281
3.501	800	3.026315
3.513	800	3.022941
3.525	800	3.027969
3.536	800	3.033132
3.548	800	3.025332
3.560	800	3.021600
3.572	800	3.020952
3.583	800	3.021019
3.596	800	3.020840
3.607	800	3.019365
3.619	800	3.025690
3.630	800	3.025131
3.643	800	3.025466
3.654	800	3.021913
3.665	800	3.024528
3.677	800	3.019521
3.689	800	3.018717
3.701	800	3.026762
3.712	800	3.028305
3.725	800	3.020728
3.736	800	3.019745
3.748	800	3.016169
3.759	800	3.017756
3.772	800	3.018672
3.783	800	3.016035
3.795	800	3.019142
3.806	800	3.018560
3.819	800	3.024282
3.830	800	3.024550
3.842	800	3.017689
3.854	800	3.018851
3.866	800	3.014560
3.877	800	3.018784
3.889	800	3.018695
3.901	800	3.016124
3.913	800	3.019007
3.924	800	3.019432
3.937	800	3.018069
3.948	800	3.021376
3.959	800	3.021399
3.971	800	3.019700
3.983	800	3.019209
3.995	800	3.018650
4.006	800	3.015163
4.018	800	3.013309
4.030	800	3.009263
4.042	800	3.011610
4.053	800	3.015543
4.066	800	3.015789
4.077	800	3.018762
4.089	800	3.021198
4.100	800	3.016147
4.113	800	3.005464
4.124	800	3.003699
4.136	800	3.012973
4.147	800	3.020505
4.160	800	3.015253
4.171	800	3.006559
4.183	800	3.003788
4.195	800	3.010895
4.207	800	3.007096
4.218	800	3.007364
4.230	800	3.018628
4.242	800	3.010627
4.253	800	3.005241
4.265	800	3.007297
4.277	800	3.013823
4.289	800	3.014515
4.300	800	3.008995
4.312	800	3.011342
4.324	800	3.012727
4.336	800	3.014694
4.347	800	3.013331
4.359	800	3.009912
4.371	800	3.004213
4.383	800	2.999564
4.394	800	3.003788
4.407	800	3.008615
4.418	800	3.006805
4.430	800	3.001173
4.441	800	3.009375
4.454	800	3.009979
4.465	800	3.005978
4.477	800	2.996838
4.488	800	2.999587
4.501	800	3.002537
4.512	800	3.003296
4.523	800	2.999721
4.536	800	3.006291
4.547	800	3.002872
4.559	800	2.998425
4.570	800	3.005621
4.583	800	2.999832
4.594	800	3.005889
4.606	800	3.003922
4.617	800	3.001687
4.630	800	3.007029
4.641	800	3.004548
4.653	800	3.001397
4.665	800	2.995474
4.677	800	2.999810
4.688	800	3.000637
4.700	800	3.006358
4.712	100	3.007610
4.724	100	2.855349
4.735	100	2.101597
4.748	100	1.292979
4.759	100	0.772994
4.770	100	0.476383
4.782	100	0.312367
4.794	100	0.215128
4.806	100	0.165670
4.817	100	0.128415
4.829	100	0.106625
4.841	100	0.094244
4.853	100	0.076119
4.864	100	0.075583
4.877	100	0.073929
4.888	100	0.066197
4.900	100	0.062621
4.911	100	0.065772
4.924	100	0.061593
4.935	100	0.064878
4.947	100	0.071895
4.958	100	0.073885
4.971	100	0.061056
4.982	100	0.061593
4.994	100	0.070108
5.006	100	0.069437
5.018	100	0.072477
5.029	100	0.075024
5.040	100	0.076969
5.053	100	0.076030
5.064	100	0.069817
5.076	100	0.061816
5.088	100	0.060721
5.100	100	0.067046
5.111	100	0.070041
5.123	100	0.070823
5.135	100	0.076633
5.147	100	0.080813
5.158	100	0.076164
5.170	100	0.073460
5.182	100	0.072007
5.194	100	0.068923
5.205	100	0.061369
5.218	100	0.067403
5.229	100	0.080611
5.241	100	0.077952
5.252	100	0.065884
5.265	100	0.064856
5.276	100	0.067806
5.287	100	0.068007
5.299	100	0.070197
5.311	100	0.072477
5.323	100	0.067381
5.334	100	0.071873
5.347	100	0.072767
5.358	100	0.071091
5.370	100	0.071895
5.381	100	0.069638
5.394	100	0.069527
5.405	100	0.070219
5.417	100	0.063515
5.429	100	0.066867
5.441	100	0.067984
5.452	100	0.061034
5.464	100	0.061459
5.476	100	0.066487
5.488	100	0.070488
5.499	100	0.078578
5.511	100	0.072007
5.523	100	0.063761
5.535	100	0.064096
5.546	100	0.070108
5.559	100	0.072320
5.570	100	0.070219
5.581	100	0.073773
5.593	100	0.081908
5.605	100	0.074443
5.617	100	0.067448
5.628	100	0.070890
5.640	100	0.074555
5.652	100	0.069102
5.664	100	0.065705
5.675	100	0.068633
5.688	100	0.068387
5.699	100	0.073594
5.711	100	0.077013
5.722	100	0.086735
5.735	100	0.078578
5.746	100	0.067359
5.758	100	0.067984
5.769	100	0.069862
5.782	100	0.068364
5.793	100	0.071404
5.804	100	0.066956
5.817	100	0.069862
5.829	100	0.069839
5.840	100	0.075963
5.851	100	0.072901
5.864	100	0.072544
5.875	100	0.070510
5.887	100	0.066845
5.899	100	0.069929
5.911	100	0.069124
5.922	100	0.069795
5.934	100	0.074220
5.946	100	0.068096
5.958	100	0.065750
5.969	100	0.072879
5.981	100	0.071918
5.993	100	0.063962
6.005	100	0.064453
6.016	100	0.068297
6.029	100	0.075203
6.040	100	0.071069
6.052	100	0.066487
6.063	100	0.065705
6.075	100	0.067605
6.087	100	0.066264
6.098	100	0.069951
6.110	100	0.069169
6.122	100	0.071493
6.134	100	0.072030
6.145	100	0.078041
6.158	100	0.076119
6.169	100	0.071828
6.181	100	0.078913
6.192	100	0.078220
6.205	100	0.082958
6.216	100	0.079047
6.228	100	0.070376
6.240	100	0.072432
6.252	100	0.077103
6.263	100	0.075851
6.275	100	0.071113
6.287	100	0.067202
6.299	100	0.069057
6.310	100	0.072588
6.322	100	0.069013
6.334	100	0.069102
6.345	100	0.066353
6.357	100	0.073147
6.369	100	0.074309
6.381	100	0.068499
6.392	100	0.067873
6.404	100	0.073125
6.416	100	0.075248
6.428	100	0.068163
6.439	100	0.068342
6.451	100	0.072879
6.463	100	0.078555
6.475	100	0.067828
6.486	100	0.068297
6.499	100	0.072901
6.510	100	0.066912
6.522	100	0.074935
6.533	100	0.076388
6.546	100	0.073907
6.557	100	0.074622
6.569	100	0.073706
6.581	100	0.068677
6.593	100	0.070175
6.604	100	0.067850
6.616	100	0.068543
6.628	100	0.074019
6.640	100	0.075360
6.651	100	0.075985
6.662	100	0.071940
6.675	100	0.074868
6.686	100	0.068767
6.698	100	0.071359
6.710	100	0.065794
6.722	100	0.069370
6.733	100	0.075918
6.745	100	0.078555
6.757	100	0.076097
6.769	100	0.070420
6.780	100	0.074019
6.792	100	0.067672
6.804	100	0.071002
6.816	100	0.073817
6.827	100	0.076410
6.840	100	0.069124
6.851	100	0.068588
6.863	100	0.075807
6.874	100	0.079941
6.887	100	0.076477
6.898	100	0.068320
6.910	100	0.067470
6.921	100	0.068409
6.934	100	0.072946
6.945	100	0.074376
6.956	100	0.069415
6.969	100	0.072901
6.981	100	0.075315
6.992	100	0.079405
7.003	100	0.070666
7.016	100	0.061392
7.027	100	0.064520
7.039	100	0.071918
7.051	100	0.074801
7.063	100	0.076432
7.074	100	0.078019
7.086	100	0.073706
7.098	100	0.069929
7.110	100	0.067269
7.121	100	0.066532
7.133	100	0.069728
7.145	100	0.063291
7.157	100	0.062598
7.168	100	0.069281
7.181	100	0.068722
7.192	100	0.066241
7.204	100	0.068007
7.215	100	0.069258
7.228	100	0.070644
7.239	100	0.069527
7.250	100	0.069616
7.262	100	0.076432
7.275	100	0.076410
7.286	100	0.081371
7.297	100	0.080835
7.310	100	0.077572
7.321	100	0.072633
7.333	100	0.073817
7.344	100	0.080634
7.357	100	0.079226
7.368	100	0.079002
7.380	100	0.075851
7.392	100	0.072097
7.404	100	0.069348
7.415	100	0.068029
7.427	100	0.071650
7.439	100	0.068163
7.451	100	0.070242
7.462	100	0.075717
7.474	100	0.071381
7.486	100	0.071873
7.498	100	0.075002
7.509	100	0.073974
7.522	100	0.071918
7.533	100	0.068744
7.544	100	0.067940
7.556	100	0.070711
7.569	100	0.076052
7.580	100	0.071583
7.591	100	0.071493
7.603	100	0.074264
7.615	100	0.076365
7.627	100	0.080097
7.638	100	0.072924
7.651	100	0.071605
7.662	100	0.071136
7.674	100	0.071672
7.685	100	0.069415
7.698	100	0.072655
7.709	100	0.072320
7.721	100	0.069124
7.733	100	0.074689
7.745	100	0.070756
7.756	100	0.069035
7.768	100	0.066018
7.780	100	0.069705
7.792	100	0.071449
7.803	100	0.068543
7.814	100	0.068722
7.827	100	0.075114
7.838	100	0.068454
7.850	100	0.068029
7.862	100	0.072499
7.874	100	0.072722
7.885	100	0.072365
7.897	100	0.072477
7.909	100	0.073862
7.921	100	0.072924
7.932	100	0.071851
7.944	100	0.071404
7.956	100	0.070398
7.968	100	0.070286
7.979	100	0.076455
7.992	100	0.072611
8.003	100	0.074957
8.015	100	0.083182
8.026	100	0.078243
8.039	100	0.065839
8.050	100	0.068834
8.062	100	0.069169
8.073	100	0.076209
8.086	100	0.077416
8.097	100	0.075985
8.108	100	0.074510
8.121	100	0.072566
8.132	100	0.070018
8.144	100	0.074913
8.155	100	0.078444
8.168	100	0.074264
8.179	100	0.067895
8.191	100	0.072499
8.203	100	0.076790
8.215	100	0.075494
8.226	100	0.069191
8.238	100	0.071113
8.250	100	0.078578
8.262	100	0.072544
8.273	100	0.071895
8.285	100	0.072722
8.297	100	0.074980
8.309	100	0.077617
8.320	100	0.072834
8.333	100	0.071560
8.344	100	0.071672
8.356	100	0.070085
8.367	100	0.065906
8.380	100	0.071493
8.391	100	0.073683
8.402	100	0.072700
8.414	100	0.071650
8.426	100	0.072253
8.438	100	0.077371
8.449	100	0.076969
8.462	100	0.072141
8.473	100	0.077639
8.485	100	0.074734
8.496	100	0.061883
8.509	100	0.069661
8.520	100	0.074421
8.532	100	0.076902
8.544	100	0.068811
8.556	100	0.060475
8.567	100	0.070890
8.579	100	0.071873
8.591	100	0.074756
8.603	100	0.076812
8.614	100	0.066420
8.626	100	0.071605
8.638	100	0.074175
8.650	100	0.067761
8.661	100	0.070443
8.674	100	0.070085
8.685	100	0.076902
8.696	100	0.074019
8.708	100	0.070152
8.721	100	0.069638
8.732	100	0.071940
8.743	100	0.063448
8.755	100	0.065548
8.767	100	0.075471
8.779	100	0.073996
8.790	100	0.074421
8.803	100	0.074778
8.814	100	0.074644
8.826	100	0.073929
8.837	100	0.075650
8.850	100	0.070666
8.861	100	0.066755
8.873	100	0.071024
8.885	100	0.075248
8.897	100	0.073393
8.908	100	0.076432
8.920	100	0.076678
8.932	100	0.073527
8.944	100	0.069951
8.955	100	0.069929
8.967	100	0.066063
8.979	100	0.077818
8.991	100	0.081863
9.002	100	0.073952
9.015	100	0.077594
9.026	100	0.081729
9.037	100	0.077885
9.049	100	0.070242
9.061	100	0.067582
9.073	100	0.071538
9.084	100	0.074242
9.096	100	0.070800
9.108	100	0.074823
9.120	100	0.069527
9.131	100	0.073594
9.144	100	0.069795
9.155	100	0.067158
9.167	100	0.071739
9.178	100	0.079047
9.191	100	0.076656
9.202	100	0.072320
9.214	100	0.070577
9.225	100	0.071583
9.238	100	0.074197
9.249	100	0.071091
9.261	100	0.067001
9.273	100	0.071739
9.285	100	0.079047
9.296	100	0.079114
9.307	100	0.073750
9.320	100	0.070130
9.331	100	0.068744
9.343	100	0.067984
9.355	100	0.073438
9.367	100	0.074890
9.378	100	0.075114
9.390	100	0.069169
